Potentiometer (V),Potentiometer (mA),Initial Voltage,Resistance (ohm),Uncertainties (amperage),Uncertainties (Volt),Resistance uncertainties
9.996,1.592,10,6278.894472,0.25,0.75,49.6390193
10.995,1.752,11,6275.684932,0.25,0.75,49.61364565
11.994,1.911,12,6276.295133,0.25,0.75,49.61846972
12.994,2.071,13,6274.263641,0.25,0.75,49.60240936
13.995,2.231,14,6272.971762,0.25,0.75,49.59219616
14.994,2.391,15,6271.016311,0.25,0.75,49.57673697